"mrg - RawData"
"Wavelength nm.","Abs."
510.00,0.029
510.05,0.029
510.10,0.031
510.15,0.031
510.20,0.033
510.25,0.032
510.30,0.031
510.35,0.031
510.40,0.031
510.45,0.031
510.50,0.029
510.55,0.031
510.60,0.030
510.65,0.029
510.70,0.028
510.75,0.030
510.80,0.027
510.85,0.026
510.90,0.029
510.95,0.028
511.00,0.028
511.05,0.032
511.10,0.032
511.15,0.033
511.20,0.032
511.25,0.032
511.30,0.033
511.35,0.030
511.40,0.032
511.45,0.031
511.50,0.030
511.55,0.032
511.60,0.028
511.65,0.030
511.70,0.030
511.75,0.031
511.80,0.030
511.85,0.029
511.90,0.030
511.95,0.029
512.00,0.027
512.05,0.030
512.10,0.032
512.15,0.034
512.20,0.035
512.25,0.035
512.30,0.033
512.35,0.034
512.40,0.033
512.45,0.031
512.50,0.033
512.55,0.030
512.60,0.031
512.65,0.031
512.70,0.032
512.75,0.030
512.80,0.028
512.85,0.028
512.90,0.028
512.95,0.028
513.00,0.028
513.05,0.027
513.10,0.030
513.15,0.032
513.20,0.033
513.25,0.035
513.30,0.033
513.35,0.034
513.40,0.033
513.45,0.033
513.50,0.034
513.55,0.032
513.60,0.033
513.65,0.031
513.70,0.031
513.75,0.032
513.80,0.029
513.85,0.031
513.90,0.031
513.95,0.030
514.00,0.030
514.05,0.030
514.10,0.030
514.15,0.031
514.20,0.029
514.25,0.030
514.30,0.034
514.35,0.033
514.40,0.034
514.45,0.035
514.50,0.035
514.55,0.034
514.60,0.032
514.65,0.034
514.70,0.034
514.75,0.030
514.80,0.033
514.85,0.031
514.90,0.033
514.95,0.033
515.00,0.030
515.05,0.031
515.10,0.030
515.15,0.031
515.20,0.029
515.25,0.029
515.30,0.029
515.35,0.030
515.40,0.029
515.45,0.033
515.50,0.036
515.55,0.036
515.60,0.035
515.65,0.033
515.70,0.034
515.75,0.035
515.80,0.034
515.85,0.035
515.90,0.031
515.95,0.032
516.00,0.031
516.05,0.030
516.10,0.032
516.15,0.029
516.20,0.030
516.25,0.030
516.30,0.031
516.35,0.028
516.40,0.028
516.45,0.030
516.50,0.026
516.55,0.029
516.60,0.029
516.65,0.031
516.70,0.037
516.75,0.035
516.80,0.036
516.85,0.035
516.90,0.036
516.95,0.034
517.00,0.033
517.05,0.033
517.10,0.033
517.15,0.031
517.20,0.033
517.25,0.031
517.30,0.036
517.35,0.031
517.40,0.030
517.45,0.029
517.50,0.028
517.55,0.029
517.60,0.026
517.65,0.028
517.70,0.028
517.75,0.028
517.80,0.029
517.85,0.025
517.90,0.029
517.95,0.032
518.00,0.036
518.05,0.036
518.10,0.036
518.15,0.035
518.20,0.035
518.25,0.036
518.30,0.035
518.35,0.033
518.40,0.033
518.45,0.033
518.50,0.032
518.55,0.034
518.60,0.029
518.65,0.031
518.70,0.031
518.75,0.031
518.80,0.031
518.85,0.030
518.90,0.030
518.95,0.029
519.00,0.028
519.05,0.029
519.10,0.028
519.15,0.030
519.20,0.029
519.25,0.030
519.30,0.033
519.35,0.037
519.40,0.035
519.45,0.036
519.50,0.039
519.55,0.034
519.60,0.033
519.65,0.035
519.70,0.032
519.75,0.033
519.80,0.031
519.85,0.030
519.90,0.029
519.95,0.031
520.00,0.030
520.05,0.030
520.10,0.032
520.15,0.031
520.20,0.030
520.25,0.029
520.30,0.028
520.35,0.030
520.40,0.026
520.45,0.031
520.50,0.027
520.55,0.025
520.60,0.027
520.65,0.029
520.70,0.027
520.75,0.035
520.80,0.039
520.85,0.037
520.90,0.036
520.95,0.035
521.00,0.035
521.05,0.036
521.10,0.034
521.15,0.034
521.20,0.034
521.25,0.032
521.30,0.032
521.35,0.035
521.40,0.033
521.45,0.030
521.50,0.030
521.55,0.032
521.60,0.031
521.65,0.031
521.70,0.030
521.75,0.029
521.80,0.028
521.85,0.028
521.90,0.028
521.95,0.028
522.00,0.027
522.05,0.028
522.10,0.027
522.15,0.029
522.20,0.037
522.25,0.038
522.30,0.036
522.35,0.036
522.40,0.039
522.45,0.034
522.50,0.038
522.55,0.035
522.60,0.035
522.65,0.037
522.70,0.033
522.75,0.035
522.80,0.033
522.85,0.033
522.90,0.033
522.95,0.032
523.00,0.032
523.05,0.031
523.10,0.030
523.15,0.032
523.20,0.030
523.25,0.030
523.30,0.026
523.35,0.027
523.40,0.029
523.45,0.024
523.50,0.030
523.55,0.028
523.60,0.028
523.65,0.029
523.70,0.037
523.75,0.037
523.80,0.038
523.85,0.039
523.90,0.036
523.95,0.035
524.00,0.038
524.05,0.033
524.10,0.038
524.15,0.038
524.20,0.037
524.25,0.036
524.30,0.034
524.35,0.034
524.40,0.035
524.45,0.031
524.50,0.033
524.55,0.030
524.60,0.031
524.65,0.033
524.70,0.031
524.75,0.029
524.80,0.030
524.85,0.029
524.90,0.029
524.95,0.027
525.00,0.030
525.05,0.028
525.10,0.027
525.15,0.028
525.20,0.027
525.25,0.026
525.30,0.033
525.35,0.039
525.40,0.040
525.45,0.036
525.50,0.037
525.55,0.038
525.60,0.038
525.65,0.037
525.70,0.038
525.75,0.035
525.80,0.036
525.85,0.036
525.90,0.035
525.95,0.033
526.00,0.034
526.05,0.032
526.10,0.035
526.15,0.033
526.20,0.033
526.25,0.031
526.30,0.029
526.35,0.031
526.40,0.031
526.45,0.031
526.50,0.028
526.55,0.030
526.60,0.028
526.65,0.026
526.70,0.028
526.75,0.027
526.80,0.026
526.85,0.029
526.90,0.029
526.95,0.034
527.00,0.042
527.05,0.038
527.10,0.038
527.15,0.038
527.20,0.039
527.25,0.039
527.30,0.037
527.35,0.037
527.40,0.037
527.45,0.035
527.50,0.035
527.55,0.036
527.60,0.035
527.65,0.036
527.70,0.033
527.75,0.033
527.80,0.032
527.85,0.032
527.90,0.030
527.95,0.031
528.00,0.031
528.05,0.031
528.10,0.029
528.15,0.030
528.20,0.029
528.25,0.029
528.30,0.027
528.35,0.027
528.40,0.028
528.45,0.028
528.50,0.027
528.55,0.026
528.60,0.026
528.65,0.026
528.70,0.027
528.75,0.034
528.80,0.042
528.85,0.040
528.90,0.043
528.95,0.040
529.00,0.037
529.05,0.042
529.10,0.036
529.15,0.037
529.20,0.036
529.25,0.036
529.30,0.036
529.35,0.032
529.40,0.031
529.45,0.032
529.50,0.033
529.55,0.031
529.60,0.031
529.65,0.031
529.70,0.033
529.75,0.029
529.80,0.031
529.85,0.030
529.90,0.028
529.95,0.029
530.00,0.029
530.05,0.027
530.10,0.027
530.15,0.027
530.20,0.027
530.25,0.025
530.30,0.025
530.35,0.027
530.40,0.025
530.45,0.025
530.50,0.024
530.55,0.029
530.60,0.037
530.65,0.038
530.70,0.040
530.75,0.038
530.80,0.039
530.85,0.038
530.90,0.036
530.95,0.037
531.00,0.036
531.05,0.037
531.10,0.036
531.15,0.036
531.20,0.032
531.25,0.035
531.30,0.032
531.35,0.033
531.40,0.031
531.45,0.032
531.50,0.033
531.55,0.029
531.60,0.031
531.65,0.029
531.70,0.029
531.75,0.027
531.80,0.029
531.85,0.028
531.90,0.027
531.95,0.024
532.00,0.028
532.05,0.027
532.10,0.024
532.15,0.026
532.20,0.024
532.25,0.025
532.30,0.023
532.35,0.024
532.40,0.022
532.45,0.025
532.50,0.033
532.55,0.040
532.60,0.039
532.65,0.040
532.70,0.038
532.75,0.039
532.80,0.039
532.85,0.037
532.90,0.037
532.95,0.036
533.00,0.036
533.05,0.034
533.10,0.034
533.15,0.034
533.20,0.034
533.25,0.031
533.30,0.032
533.35,0.031
533.40,0.031
533.45,0.031
533.50,0.028
533.55,0.028
533.60,0.028
533.65,0.028
533.70,0.029
533.75,0.029
533.80,0.028
533.85,0.027
533.90,0.024
533.95,0.025
534.00,0.026
534.05,0.025
534.10,0.025
534.15,0.026
534.20,0.024
534.25,0.027
534.30,0.026
534.35,0.024
534.40,0.025
534.45,0.030
534.50,0.037
534.55,0.041
534.60,0.038
534.65,0.039
534.70,0.036
534.75,0.038
534.80,0.036
534.85,0.036
534.90,0.036
534.95,0.037
535.00,0.034
535.05,0.031
535.10,0.033
535.15,0.034
535.20,0.033
535.25,0.030
535.30,0.031
535.35,0.031
535.40,0.030
535.45,0.030
535.50,0.031
535.55,0.031
535.60,0.028
535.65,0.031
535.70,0.026
535.75,0.028
535.80,0.026
535.85,0.026
535.90,0.026
535.95,0.028
536.00,0.023
536.05,0.026
536.10,0.024
536.15,0.025
536.20,0.025
536.25,0.025
536.30,0.026
536.35,0.025
536.40,0.023
536.45,0.026
536.50,0.030
536.55,0.039
536.60,0.040
536.65,0.038
536.70,0.040
536.75,0.038
536.80,0.039
536.85,0.036
536.90,0.037
536.95,0.036
537.00,0.035
537.05,0.036
537.10,0.035
537.15,0.033
537.20,0.035
537.25,0.031
537.30,0.032
537.35,0.032
537.40,0.031
537.45,0.031
537.50,0.031
537.55,0.031
537.60,0.030
537.65,0.031
537.70,0.029
537.75,0.030
537.80,0.029
537.85,0.028
537.90,0.027
537.95,0.025
538.00,0.026
538.05,0.025
538.10,0.025
538.15,0.024
538.20,0.024
538.25,0.023
538.30,0.023
538.35,0.023
538.40,0.023
538.45,0.022
538.50,0.024
538.55,0.023
538.60,0.033
538.65,0.039
538.70,0.039
538.75,0.039
538.80,0.039
538.85,0.040
538.90,0.037
538.95,0.038
539.00,0.037
539.05,0.035
539.10,0.034
539.15,0.037
539.20,0.036
539.25,0.034
539.30,0.034
539.35,0.030
539.40,0.033
539.45,0.032
539.50,0.031
539.55,0.032
539.60,0.031
539.65,0.031
539.70,0.030
539.75,0.029
539.80,0.028
539.85,0.028
539.90,0.027
539.95,0.026
540.00,0.028
540.05,0.027
540.10,0.026
540.15,0.024
540.20,0.025
540.25,0.026
540.30,0.025
540.35,0.023
540.40,0.021
540.45,0.025
540.50,0.024
540.55,0.022
540.60,0.022
540.65,0.023
540.70,0.023
540.75,0.025
540.80,0.031
540.85,0.038
540.90,0.040
540.95,0.041
541.00,0.039
541.05,0.038
541.10,0.039
541.15,0.037
541.20,0.037
541.25,0.037
541.30,0.037
541.35,0.035
541.40,0.034
541.45,0.036
541.50,0.033
541.55,0.032
541.60,0.031
541.65,0.033
541.70,0.031
541.75,0.029
541.80,0.028
541.85,0.030
541.90,0.029
541.95,0.027
542.00,0.029
542.05,0.027
542.10,0.027
542.15,0.027
542.20,0.027
542.25,0.025
542.30,0.025
542.35,0.025
542.40,0.025
542.45,0.023
542.50,0.025
542.55,0.023
542.60,0.022
542.65,0.023
542.70,0.025
542.75,0.023
542.80,0.021
542.85,0.024
542.90,0.023
542.95,0.023
543.00,0.023
543.05,0.028
543.10,0.036
543.15,0.039
543.20,0.037
543.25,0.037
543.30,0.036
543.35,0.037
543.40,0.034
543.45,0.034
543.50,0.034
543.55,0.033
543.60,0.034
543.65,0.029
543.70,0.033
543.75,0.032
543.80,0.030
543.85,0.029
543.90,0.032
543.95,0.027
544.00,0.029
544.05,0.029
544.10,0.027
544.15,0.028
544.20,0.027
544.25,0.027
544.30,0.026
544.35,0.025
544.40,0.027
544.45,0.025
544.50,0.025
544.55,0.024
544.60,0.024
544.65,0.023
544.70,0.024
544.75,0.022
544.80,0.023
544.85,0.023
544.90,0.024
544.95,0.025
545.00,0.024
545.05,0.024
545.10,0.023
545.15,0.023
545.20,0.023
545.25,0.021
545.30,0.022
545.35,0.021
545.40,0.024
545.45,0.025
545.50,0.035
545.55,0.039
545.60,0.038
545.65,0.037
545.70,0.036
545.75,0.036
545.80,0.034
545.85,0.035
545.90,0.032
545.95,0.032
546.00,0.032
546.05,0.031
546.10,0.029
546.15,0.031
546.20,0.030
546.25,0.028
546.30,0.029
546.35,0.028
546.40,0.026
546.45,0.027
546.50,0.027
546.55,0.025
546.60,0.027
546.65,0.023
546.70,0.024
546.75,0.023
546.80,0.024
546.85,0.023
546.90,0.024
546.95,0.023
547.00,0.026
547.05,0.021
547.10,0.024
547.15,0.023
547.20,0.023
547.25,0.027
547.30,0.023
547.35,0.023
547.40,0.024
547.45,0.022
547.50,0.022
547.55,0.024
547.60,0.022
547.65,0.021
547.70,0.021
547.75,0.023
547.80,0.022
547.85,0.023
547.90,0.029
547.95,0.036
548.00,0.035
548.05,0.036
548.10,0.036
548.15,0.033
548.20,0.034
548.25,0.034
548.30,0.034
548.35,0.032
548.40,0.032
548.45,0.031
548.50,0.031
548.55,0.032
548.60,0.028
548.65,0.030
548.70,0.028
548.75,0.024
548.80,0.027
548.85,0.026
548.90,0.027
548.95,0.026
549.00,0.024
549.05,0.026
549.10,0.024
549.15,0.024
549.20,0.025
549.25,0.024
549.30,0.023
549.35,0.022
549.40,0.023
549.45,0.027
549.50,0.027
549.55,0.027
549.60,0.028
549.65,0.026
549.70,0.024
549.75,0.024
549.80,0.023
549.85,0.025
549.90,0.022
549.95,0.023
550.00,0.023
550.05,0.022
550.10,0.024
550.15,0.021
550.20,0.020
550.25,0.021
550.30,0.020
550.35,0.025
550.40,0.032
550.45,0.036
550.50,0.034
550.55,0.034
550.60,0.037
550.65,0.032
550.70,0.033
550.75,0.030
550.80,0.032
550.85,0.031
550.90,0.029
550.95,0.030
551.00,0.029
551.05,0.029
551.10,0.028
551.15,0.027
551.20,0.028
551.25,0.028
551.30,0.030
551.35,0.025
551.40,0.025
551.45,0.026
551.50,0.025
551.55,0.025
551.60,0.025
551.65,0.022
551.70,0.024
551.75,0.023
551.80,0.024
551.85,0.026
551.90,0.027
551.95,0.027
552.00,0.026
552.05,0.027
552.10,0.026
552.15,0.026
552.20,0.025
552.25,0.024
552.30,0.022
552.35,0.024
552.40,0.024
552.45,0.023
552.50,0.023
552.55,0.021
552.60,0.023
552.65,0.021
552.70,0.022
552.75,0.022
552.80,0.021
552.85,0.019
552.90,0.020
552.95,0.023
553.00,0.028
553.05,0.031
553.10,0.032
553.15,0.033
553.20,0.032
553.25,0.030
553.30,0.031
553.35,0.031
553.40,0.030
553.45,0.028
553.50,0.030
553.55,0.030
553.60,0.027
553.65,0.029
553.70,0.026
553.75,0.027
553.80,0.026
553.85,0.026
553.90,0.023
553.95,0.025
554.00,0.024
554.05,0.023
554.10,0.025
554.15,0.023
554.20,0.023
554.25,0.022
554.30,0.021
554.35,0.026
554.40,0.027
554.45,0.025
554.50,0.027
554.55,0.026
554.60,0.025
554.65,0.024
554.70,0.024
554.75,0.026
554.80,0.023
554.85,0.024
554.90,0.023
554.95,0.023
555.00,0.023
555.05,0.020
555.10,0.022
555.15,0.019
555.20,0.021
555.25,0.022
555.30,0.020
555.35,0.019
555.40,0.019
555.45,0.019
555.50,0.018
555.55,0.019
555.60,0.020
555.65,0.020
555.70,0.024
555.75,0.028
555.80,0.031
555.85,0.028
555.90,0.028
555.95,0.030
556.00,0.028
556.05,0.027
556.10,0.030
556.15,0.027
556.20,0.026
556.25,0.027
556.30,0.024
556.35,0.025
556.40,0.026
556.45,0.023
556.50,0.022
556.55,0.022
556.60,0.023
556.65,0.024
556.70,0.022
556.75,0.021
556.80,0.022
556.85,0.020
556.90,0.021
556.95,0.020
557.00,0.024
557.05,0.028
557.10,0.027
557.15,0.026
557.20,0.025
557.25,0.024
557.30,0.025
557.35,0.024
557.40,0.023
557.45,0.023
557.50,0.023
557.55,0.022
557.60,0.023
557.65,0.022
557.70,0.023
557.75,0.020
557.80,0.022
557.85,0.022
557.90,0.020
557.95,0.021
558.00,0.020
558.05,0.020
558.10,0.019
558.15,0.018
558.20,0.019
558.25,0.019
558.30,0.015
558.35,0.018
558.40,0.017
558.45,0.018
558.50,0.017
558.55,0.020
558.60,0.027
558.65,0.026
558.70,0.026
558.75,0.028
558.80,0.025
558.85,0.026
558.90,0.024
558.95,0.025
559.00,0.023
559.05,0.025
559.10,0.022
559.15,0.023
559.20,0.023
559.25,0.022
559.30,0.022
559.35,0.020
559.40,0.019
559.45,0.022
559.50,0.021
559.55,0.019
559.60,0.021
559.65,0.020
559.70,0.022
559.75,0.025
559.80,0.028
559.85,0.026
559.90,0.027
559.95,0.025
560.00,0.023
560.05,0.023
560.10,0.023
560.15,0.023
560.20,0.024
560.25,0.022
560.30,0.024
560.35,0.023
560.40,0.020
560.45,0.020
560.50,0.020
560.55,0.019
560.60,0.020
560.65,0.018
560.70,0.019
560.75,0.020
560.80,0.020
560.85,0.019
560.90,0.018
560.95,0.018
561.00,0.019
561.05,0.017
561.10,0.017
561.15,0.014
561.20,0.017
561.25,0.016
561.30,0.015
561.35,0.018
561.40,0.019
561.45,0.024
561.50,0.025
561.55,0.023
561.60,0.023
561.65,0.023
561.70,0.022
561.75,0.022
561.80,0.022
561.85,0.021
561.90,0.020
561.95,0.021
562.00,0.021
562.05,0.019
562.10,0.019
562.15,0.019
562.20,0.019
562.25,0.018
562.30,0.019
562.35,0.018
562.40,0.022
562.45,0.023
562.50,0.025
562.55,0.025
562.60,0.024
562.65,0.025
562.70,0.025
562.75,0.023
562.80,0.026
562.85,0.024
562.90,0.022
562.95,0.024
563.00,0.021
563.05,0.021
563.10,0.022
563.15,0.020
563.20,0.020
563.25,0.019
563.30,0.023
563.35,0.021
563.40,0.020
563.45,0.018
563.50,0.017
563.55,0.019
563.60,0.017
563.65,0.017
563.70,0.017
563.75,0.017
563.80,0.019
563.85,0.014
563.90,0.017
563.95,0.017
564.00,0.015
564.05,0.017
564.10,0.018
564.15,0.015
564.20,0.013
564.25,0.014
564.30,0.016
564.35,0.016
564.40,0.021
564.45,0.022
564.50,0.021
564.55,0.022
564.60,0.021
564.65,0.021
564.70,0.020
564.75,0.021
564.80,0.020
564.85,0.020
564.90,0.018
564.95,0.019
565.00,0.019
565.05,0.018
565.10,0.017
565.15,0.018
565.20,0.018
565.25,0.018
565.30,0.023
565.35,0.025
565.40,0.026
565.45,0.025
565.50,0.024
565.55,0.025
565.60,0.025
565.65,0.023
565.70,0.025
565.75,0.023
565.80,0.023
565.85,0.021
565.90,0.022
565.95,0.021
566.00,0.022
566.05,0.019
566.10,0.020
566.15,0.021
566.20,0.018
566.25,0.020
566.30,0.018
566.35,0.018
566.40,0.018
566.45,0.020
566.50,0.019
566.55,0.018
566.60,0.018
566.65,0.016
566.70,0.017
566.75,0.018
566.80,0.017
566.85,0.015
566.90,0.015
566.95,0.015
567.00,0.015
567.05,0.017
567.10,0.013
567.15,0.013
567.20,0.015
567.25,0.013
567.30,0.013
567.35,0.014
567.40,0.018
567.45,0.020
567.50,0.019
567.55,0.018
567.60,0.020
567.65,0.020
567.70,0.018
567.75,0.019
567.80,0.017
567.85,0.021
567.90,0.018
567.95,0.019
568.00,0.019
568.05,0.016
568.10,0.018
568.15,0.017
568.20,0.022
568.25,0.024
568.30,0.026
568.35,0.025
568.40,0.024
568.45,0.025
568.50,0.022
568.55,0.023
568.60,0.023
568.65,0.021
568.70,0.023
568.75,0.023
568.80,0.020
568.85,0.018
568.90,0.021
568.95,0.020
569.00,0.019
569.05,0.021
569.10,0.018
569.15,0.019
569.20,0.019
569.25,0.020
569.30,0.018
569.35,0.018
569.40,0.017
569.45,0.018
569.50,0.019
569.55,0.016
569.60,0.018
569.65,0.015
569.70,0.015
569.75,0.015
569.80,0.015
569.85,0.015
569.90,0.014
569.95,0.014
570.00,0.014
570.05,0.015
570.10,0.015
570.15,0.011
570.20,0.013
570.25,0.014
570.30,0.011
570.35,0.014
570.40,0.012
570.45,0.014
570.50,0.015
570.55,0.017
570.60,0.018
570.65,0.017
570.70,0.017
570.75,0.017
570.80,0.016
570.85,0.014
570.90,0.015
570.95,0.017
571.00,0.014
571.05,0.015
571.10,0.015
571.15,0.018
571.20,0.022
571.25,0.024
571.30,0.023
571.35,0.023
571.40,0.023
571.45,0.021
571.50,0.021
571.55,0.019
571.60,0.018
571.65,0.020
571.70,0.020
571.75,0.018
571.80,0.021
571.85,0.019
571.90,0.020
571.95,0.019
572.00,0.017
572.05,0.017
572.10,0.020
572.15,0.019
572.20,0.019
572.25,0.017
572.30,0.018
572.35,0.017
572.40,0.017
572.45,0.016
572.50,0.015
572.55,0.016
572.60,0.015
572.65,0.018
572.70,0.016
572.75,0.014
572.80,0.015
572.85,0.015
572.90,0.014
572.95,0.014
573.00,0.015
573.05,0.012
573.10,0.015
573.15,0.013
573.20,0.013
573.25,0.014
573.30,0.012
573.35,0.014
573.40,0.012
573.45,0.011
573.50,0.012
573.55,0.013
573.60,0.013
573.65,0.011
573.70,0.011
573.75,0.012
573.80,0.012
573.85,0.015
573.90,0.016
573.95,0.015
574.00,0.015
574.05,0.014
574.10,0.014
574.15,0.014
574.20,0.015
574.25,0.014
574.30,0.013
574.35,0.013
574.40,0.016
574.45,0.020
574.50,0.021
574.55,0.021
574.60,0.020
574.65,0.020
574.70,0.021
574.75,0.017
574.80,0.019
574.85,0.019
574.90,0.017
574.95,0.018
575.00,0.018
575.05,0.017
575.10,0.016
575.15,0.017
575.20,0.017
575.25,0.017
575.30,0.019
575.35,0.017
575.40,0.017
575.45,0.017
575.50,0.015
575.55,0.016
575.60,0.015
575.65,0.016
575.70,0.014
575.75,0.013
575.80,0.014
575.85,0.014
575.90,0.014
575.95,0.014
576.00,0.015
576.05,0.015
576.10,0.015
576.15,0.011
576.20,0.012
576.25,0.012
576.30,0.012
576.35,0.013
576.40,0.012
576.45,0.013
576.50,0.012
576.55,0.012
576.60,0.009
576.65,0.012
576.70,0.010
576.75,0.013
576.80,0.011
576.85,0.010
576.90,0.012
576.95,0.011
577.00,0.009
577.05,0.010
577.10,0.010
577.15,0.010
577.20,0.011
577.25,0.010
577.30,0.011
577.35,0.011
577.40,0.013
577.45,0.012
577.50,0.011
577.55,0.012
577.60,0.011
577.65,0.017
577.70,0.019
577.75,0.019
577.80,0.017
577.85,0.018
577.90,0.018
577.95,0.017
578.00,0.017
578.05,0.016
578.10,0.016
578.15,0.017
578.20,0.016
578.25,0.016
578.30,0.019
578.35,0.016
578.40,0.019
578.45,0.018
578.50,0.016
578.55,0.016
578.60,0.017
578.65,0.018
578.70,0.017
578.75,0.015
578.80,0.015
578.85,0.014
578.90,0.013
578.95,0.016
579.00,0.013
579.05,0.014
579.10,0.014
579.15,0.014
579.20,0.014
579.25,0.015
579.30,0.011
579.35,0.014
579.40,0.012
579.45,0.012
579.50,0.012
579.55,0.012
579.60,0.012
579.65,0.012
579.70,0.011
579.75,0.011
579.80,0.012
579.85,0.011
579.90,0.013
579.95,0.010
580.00,0.011
580.05,0.012
580.10,0.012
580.15,0.009
580.20,0.011
580.25,0.010
580.30,0.011
580.35,0.010
580.40,0.011
580.45,0.008
580.50,0.012
580.55,0.008
580.60,0.009
580.65,0.009
580.70,0.010
580.75,0.011
580.80,0.011
580.85,0.011
580.90,0.011
580.95,0.011
581.00,0.011
581.05,0.018
581.10,0.016
581.15,0.018
581.20,0.018
581.25,0.017
581.30,0.017
581.35,0.018
581.40,0.015
581.45,0.015
581.50,0.016
581.55,0.014
581.60,0.018
581.65,0.016
581.70,0.018
581.75,0.017
581.80,0.019
581.85,0.015
581.90,0.016
581.95,0.015
582.00,0.016
582.05,0.016
582.10,0.014
582.15,0.015
582.20,0.014
582.25,0.015
582.30,0.013
582.35,0.014
582.40,0.013
582.45,0.013
582.50,0.014
582.55,0.015
582.60,0.012
582.65,0.012
582.70,0.013
582.75,0.011
582.80,0.013
582.85,0.013
582.90,0.012
582.95,0.010
583.00,0.013
583.05,0.010
583.10,0.011
583.15,0.011
583.20,0.012
583.25,0.011
583.30,0.010
583.35,0.012
583.40,0.009
583.45,0.011
583.50,0.009
583.55,0.010
583.60,0.010
583.65,0.011
583.70,0.009
583.75,0.011
583.80,0.010
583.85,0.009
583.90,0.011
583.95,0.009
584.00,0.010
584.05,0.009
584.10,0.010
584.15,0.007
584.20,0.010
584.25,0.008
584.30,0.010
584.35,0.011
584.40,0.011
584.45,0.015
584.50,0.016
584.55,0.013
584.60,0.015
584.65,0.014
584.70,0.013
584.75,0.015
584.80,0.015
584.85,0.016
584.90,0.016
584.95,0.016
585.00,0.016
585.05,0.016
585.10,0.015
585.15,0.013
585.20,0.015
585.25,0.015
585.30,0.016
585.35,0.012
585.40,0.016
585.45,0.012
585.50,0.014
585.55,0.013
585.60,0.014
585.65,0.011
585.70,0.014
585.75,0.011
585.80,0.012
585.85,0.012
585.90,0.012
585.95,0.011
586.00,0.011
586.05,0.012
586.10,0.011
586.15,0.011
586.20,0.010
586.25,0.013
586.30,0.010
586.35,0.012
586.40,0.009
586.45,0.012
586.50,0.010
586.55,0.012
586.60,0.008
586.65,0.008
586.70,0.009
586.75,0.009
586.80,0.009
586.85,0.009
586.90,0.008
586.95,0.009
587.00,0.009
587.05,0.010
587.10,0.009
587.15,0.009
587.20,0.009
587.25,0.009
587.30,0.009
587.35,0.008
587.40,0.007
587.45,0.009
587.50,0.009
587.55,0.007
587.60,0.007
587.65,0.006
587.70,0.008
587.75,0.007
587.80,0.008
587.85,0.007
587.90,0.009
587.95,0.008
588.00,0.013
588.05,0.012
588.10,0.013
588.15,0.011
588.20,0.013
588.25,0.011
588.30,0.016
588.35,0.016
588.40,0.016
588.45,0.013
588.50,0.016
588.55,0.014
588.60,0.014
588.65,0.014
588.70,0.017
588.75,0.014
588.80,0.014
588.85,0.013
588.90,0.014
588.95,0.011
589.00,0.013
589.05,0.013
589.10,0.012
589.15,0.013
589.20,0.012
589.25,0.011
589.30,0.013
589.35,0.011
589.40,0.011
589.45,0.010
589.50,0.011
589.55,0.009
589.60,0.011
589.65,0.010
589.70,0.010
589.75,0.010
589.80,0.009
589.85,0.009
589.90,0.010
589.95,0.009
590.00,0.008
590.05,0.009
590.10,0.009
590.15,0.009
590.20,0.008
590.25,0.008
590.30,0.008
590.35,0.007
590.40,0.009
590.45,0.008
590.50,0.008
590.55,0.007
590.60,0.009
590.65,0.007
590.70,0.006
590.75,0.007
590.80,0.007
590.85,0.007
590.90,0.008
590.95,0.007
591.00,0.007
591.05,0.007
591.10,0.008
591.15,0.005
591.20,0.005
591.25,0.007
591.30,0.006
591.35,0.006
591.40,0.007
591.45,0.007
591.50,0.006
591.55,0.005
591.60,0.008
591.65,0.009
591.70,0.010
591.75,0.011
591.80,0.014
591.85,0.014
591.90,0.013
591.95,0.014
592.00,0.013
592.05,0.013
592.10,0.013
592.15,0.013
592.20,0.013
592.25,0.013
592.30,0.013
592.35,0.011
592.40,0.012
592.45,0.013
592.50,0.011
592.55,0.012
592.60,0.010
592.65,0.010
592.70,0.011
592.75,0.007
592.80,0.009
592.85,0.010
592.90,0.009
592.95,0.009
593.00,0.013
593.05,0.010
593.10,0.010
593.15,0.008
593.20,0.009
593.25,0.008
593.30,0.007
593.35,0.009
593.40,0.007
593.45,0.009
593.50,0.007
593.55,0.008
593.60,0.007
593.65,0.009
593.70,0.005
593.75,0.009
593.80,0.007
593.85,0.009
593.90,0.008
593.95,0.008
594.00,0.006
594.05,0.006
594.10,0.006
594.15,0.008
594.20,0.006
594.25,0.006
594.30,0.007
594.35,0.007
594.40,0.006
594.45,0.008
594.50,0.006
594.55,0.007
594.60,0.007
594.65,0.007
594.70,0.005
594.75,0.007
594.80,0.006
594.85,0.007
594.90,0.005
594.95,0.006
595.00,0.005
595.05,0.007
595.10,0.005
595.15,0.005
595.20,0.006
595.25,0.006
595.30,0.005
595.35,0.011
595.40,0.010
595.45,0.013
595.50,0.011
595.55,0.013
595.60,0.012
595.65,0.013
595.70,0.010
595.75,0.012
595.80,0.011
595.85,0.012
595.90,0.012
595.95,0.011
596.00,0.012
596.05,0.011
596.10,0.012
596.15,0.010
596.20,0.011
596.25,0.009
596.30,0.013
596.35,0.010
596.40,0.011
596.45,0.009
596.50,0.012
596.55,0.009
596.60,0.009
596.65,0.009
596.70,0.010
596.75,0.009
596.80,0.010
596.85,0.008
596.90,0.008
596.95,0.009
597.00,0.009
597.05,0.006
597.10,0.010
597.15,0.007
597.20,0.011
597.25,0.007
597.30,0.008
597.35,0.008
597.40,0.009
597.45,0.008
597.50,0.010
597.55,0.006
597.60,0.008
597.65,0.007
597.70,0.009
597.75,0.006
597.80,0.007
597.85,0.006
597.90,0.007
597.95,0.007
598.00,0.008
598.05,0.006
598.10,0.007
598.15,0.008
598.20,0.008
598.25,0.007
598.30,0.007
598.35,0.006
598.40,0.008
598.45,0.007
598.50,0.008
598.55,0.006
598.60,0.008
598.65,0.006
598.70,0.007
598.75,0.006
598.80,0.008
598.85,0.004
598.90,0.008
598.95,0.005
599.00,0.006
599.05,0.008
599.10,0.010
599.15,0.011
599.20,0.012
599.25,0.010
599.30,0.012
599.35,0.012
599.40,0.013
599.45,0.012
599.50,0.012
599.55,0.011
599.60,0.011
599.65,0.009
599.70,0.012
599.75,0.011
599.80,0.010
599.85,0.010
599.90,0.012
599.95,0.009
600.00,0.011
600.05,0.009
600.10,0.012
600.15,0.009
600.20,0.009
600.25,0.009
600.30,0.010
600.35,0.008
600.40,0.011
600.45,0.009
600.50,0.011
600.55,0.007
600.60,0.011
600.65,0.008
600.70,0.010
600.75,0.008
600.80,0.010
600.85,0.007
600.90,0.010
600.95,0.007
601.00,0.008
601.05,0.008
601.10,0.009
601.15,0.008
601.20,0.009
601.25,0.008
601.30,0.009
601.35,0.007
601.40,0.009
601.45,0.006
601.50,0.007
601.55,0.006
601.60,0.008
601.65,0.006
601.70,0.007
601.75,0.009
601.80,0.007
601.85,0.007
601.90,0.007
601.95,0.006
602.00,0.008
602.05,0.006
602.10,0.007
602.15,0.006
602.20,0.006
602.25,0.007
602.30,0.006
602.35,0.008
602.40,0.004
602.45,0.005
602.50,0.005
602.55,0.007
602.60,0.007
602.65,0.006
602.70,0.006
602.75,0.007
602.80,0.005
602.85,0.009
602.90,0.004
602.95,0.006
603.00,0.007
603.05,0.011
603.10,0.009
603.15,0.011
603.20,0.011
603.25,0.011
603.30,0.010
603.35,0.012
603.40,0.009
603.45,0.011
603.50,0.010
603.55,0.011
603.60,0.009
603.65,0.011
603.70,0.009
603.75,0.010
603.80,0.011
603.85,0.011
603.90,0.009
603.95,0.009
604.00,0.008
604.05,0.008
604.10,0.010
604.15,0.008
604.20,0.008
604.25,0.008
604.30,0.009
604.35,0.007
604.40,0.009
604.45,0.007
604.50,0.007
604.55,0.008
604.60,0.006
604.65,0.008
604.70,0.007
604.75,0.007
604.80,0.005
604.85,0.007
604.90,0.004
604.95,0.009
605.00,0.004
605.05,0.007
605.10,0.005
605.15,0.007
605.20,0.006
605.25,0.007
605.30,0.006
605.35,0.008
605.40,0.004
605.45,0.005
605.50,0.007
605.55,0.005
605.60,0.006
605.65,0.005
605.70,0.005
605.75,0.007
605.80,0.004
605.85,0.006
605.90,0.006
605.95,0.004
606.00,0.005
606.05,0.004
606.10,0.004
606.15,0.005
606.20,0.005
606.25,0.004
606.30,0.003
606.35,0.006
606.40,0.004
606.45,0.005
606.50,0.006
606.55,0.007
606.60,0.003
606.65,0.005
606.70,0.004
606.75,0.005
606.80,0.006
606.85,0.007
606.90,0.007
606.95,0.009
607.00,0.007
607.05,0.007
607.10,0.008
607.15,0.009
607.20,0.008
607.25,0.009
607.30,0.008
607.35,0.008
607.40,0.008
607.45,0.007
607.50,0.009
607.55,0.008
607.60,0.008
607.65,0.008
607.70,0.007
607.75,0.009
607.80,0.008
607.85,0.006
607.90,0.007
607.95,0.006
608.00,0.008
608.05,0.008
608.10,0.006
608.15,0.005
608.20,0.007
608.25,0.009
608.30,0.007
608.35,0.006
608.40,0.005
608.45,0.008
608.50,0.007
608.55,0.007
608.60,0.008
608.65,0.006
608.70,0.008
608.75,0.006
608.80,0.007
608.85,0.006
608.90,0.006
608.95,0.006
609.00,0.006
609.05,0.004
609.10,0.006
609.15,0.005
609.20,0.005
609.25,0.003
609.30,0.005
609.35,0.004
609.40,0.007
609.45,0.005
609.50,0.003
609.55,0.005
609.60,0.004
609.65,0.006
609.70,0.004
609.75,0.005
609.80,0.004
609.85,0.005
609.90,0.004
609.95,0.006
610.00,0.005
610.05,0.007
610.10,0.003
610.15,0.004
610.20,0.002
610.25,0.006
610.30,0.003
610.35,0.005
610.40,0.005
610.45,0.005
610.50,0.004
610.55,0.006
610.60,0.004
610.65,0.006
610.70,0.005
610.75,0.008
610.80,0.006
610.85,0.007
610.90,0.006
610.95,0.007
611.00,0.007
611.05,0.009
611.10,0.006
611.15,0.010
611.20,0.008
611.25,0.009
611.30,0.006
611.35,0.008
611.40,0.006
611.45,0.007
611.50,0.006
611.55,0.007
611.60,0.006
611.65,0.008
611.70,0.009
611.75,0.007
611.80,0.008
611.85,0.006
611.90,0.008
611.95,0.006
612.00,0.008
612.05,0.005
612.10,0.007
612.15,0.004
612.20,0.006
612.25,0.007
612.30,0.007
612.35,0.005
612.40,0.009
612.45,0.004
612.50,0.006
612.55,0.004
612.60,0.007
612.65,0.003
612.70,0.006
612.75,0.005
612.80,0.007
612.85,0.006
612.90,0.007
612.95,0.004
613.00,0.006
613.05,0.004
613.10,0.006
613.15,0.005
613.20,0.006
613.25,0.007
613.30,0.007
613.35,0.004
613.40,0.006
613.45,0.005
613.50,0.006
613.55,0.004
613.60,0.008
613.65,0.004
613.70,0.007
613.75,0.004
613.80,0.008
613.85,0.005
613.90,0.008
613.95,0.005
614.00,0.006
614.05,0.004
614.10,0.007
614.15,0.003
614.20,0.006
614.25,0.004
614.30,0.005
614.35,0.004
614.40,0.007
614.45,0.004
614.50,0.007
614.55,0.005
614.60,0.007
614.65,0.004
614.70,0.007
614.75,0.004
614.80,0.008
614.85,0.006
614.90,0.008
614.95,0.003
615.00,0.009
615.05,0.008
615.10,0.008
615.15,0.008
615.20,0.008
615.25,0.006
615.30,0.009
615.35,0.007
615.40,0.009
615.45,0.006
615.50,0.008
615.55,0.006
615.60,0.009
615.65,0.006
615.70,0.009
615.75,0.006
615.80,0.006
615.85,0.005
615.90,0.007
615.95,0.006
616.00,0.007
616.05,0.006
616.10,0.005
616.15,0.006
616.20,0.005
616.25,0.008
616.30,0.004
616.35,0.007
616.40,0.006
616.45,0.008
616.50,0.007
616.55,0.004
616.60,0.007
616.65,0.006
616.70,0.007
616.75,0.005
616.80,0.006
616.85,0.006
616.90,0.007
616.95,0.005
617.00,0.006
617.05,0.007
617.10,0.005
617.15,0.007
617.20,0.003
617.25,0.007
617.30,0.003
617.35,0.009
617.40,0.004
617.45,0.008
617.50,0.004
617.55,0.005
617.60,0.006
617.65,0.007
617.70,0.006
617.75,0.004
617.80,0.006
617.85,0.005
617.90,0.007
617.95,0.004
618.00,0.008
618.05,0.002
618.10,0.007
618.15,0.004
618.20,0.006
618.25,0.006
618.30,0.006
618.35,0.003
618.40,0.004
618.45,0.005
618.50,0.004
618.55,0.006
618.60,0.006
618.65,0.007
618.70,0.004
618.75,0.006
618.80,0.005
618.85,0.006
618.90,0.005
618.95,0.008
619.00,0.006
619.05,0.008
619.10,0.006
619.15,0.007
619.20,0.007
619.25,0.007
619.30,0.007
619.35,0.006
619.40,0.007
619.45,0.007
619.50,0.008
619.55,0.007
619.60,0.009
619.65,0.006
619.70,0.009
619.75,0.006
619.80,0.007
619.85,0.006
619.90,0.008
619.95,0.005
620.00,0.007
620.05,0.005
620.10,0.007
620.15,0.008
620.20,0.007
620.25,0.005
620.30,0.005
620.35,0.007
620.40,0.006
620.45,0.008
620.50,0.006
620.55,0.009
620.60,0.004
620.65,0.007
620.70,0.004
620.75,0.007
620.80,0.007
620.85,0.007
620.90,0.006
620.95,0.008
621.00,0.006
621.05,0.005
621.10,0.007
621.15,0.005
621.20,0.007
621.25,0.004
621.30,0.005
621.35,0.003
621.40,0.006
621.45,0.006
621.50,0.007
621.55,0.004
621.60,0.006
621.65,0.004
621.70,0.006
621.75,0.002
621.80,0.005
621.85,0.003
621.90,0.005
621.95,0.004
622.00,0.006
622.05,0.004
622.10,0.004
622.15,0.004
622.20,0.005
622.25,0.006
622.30,0.005
622.35,0.006
622.40,0.004
622.45,0.004
622.50,0.006
622.55,0.005
622.60,0.004
622.65,0.005
622.70,0.006
622.75,0.005
622.80,0.005
622.85,0.006
622.90,0.004
622.95,0.004
623.00,0.007
623.05,0.005
623.10,0.007
623.15,0.006
623.20,0.006
623.25,0.006
623.30,0.006
623.35,0.007
623.40,0.007
623.45,0.006
623.50,0.005
623.55,0.007
623.60,0.006
623.65,0.006
623.70,0.006
623.75,0.008
623.80,0.006
623.85,0.006
623.90,0.005
623.95,0.005
624.00,0.007
624.05,0.005
624.10,0.008
624.15,0.005
624.20,0.007
624.25,0.003
624.30,0.008
624.35,0.004
624.40,0.004
624.45,0.006
624.50,0.006
624.55,0.004
624.60,0.005
624.65,0.005
624.70,0.006
624.75,0.005
624.80,0.004
624.85,0.005
624.90,0.005
624.95,0.005
625.00,0.005
625.05,0.006
625.10,0.004
625.15,0.004
625.20,0.004
625.25,0.005
625.30,0.004
625.35,0.004
625.40,0.005
625.45,0.003
625.50,0.005
625.55,0.005
625.60,0.004
625.65,0.004
625.70,0.007
625.75,0.006
625.80,0.004
625.85,0.005
625.90,0.004
625.95,0.004
626.00,0.004
626.05,0.007
626.10,0.003
626.15,0.004
626.20,0.003
626.25,0.006
626.30,0.004
626.35,0.005
626.40,0.004
626.45,0.006
626.50,0.004
626.55,0.004
626.60,0.004
626.65,0.003
626.70,0.004
626.75,0.004
626.80,0.003
626.85,0.004
626.90,0.005
626.95,0.005
627.00,0.004
627.05,0.004
627.10,0.005
627.15,0.004
627.20,0.004
627.25,0.003
627.30,0.006
627.35,0.004
627.40,0.005
627.45,0.005
627.50,0.004
627.55,0.004
627.60,0.006
627.65,0.004
627.70,0.006
627.75,0.004
627.80,0.005
627.85,0.005
627.90,0.007
627.95,0.005
628.00,0.007
628.05,0.004
628.10,0.005
628.15,0.006
628.20,0.006
628.25,0.004
628.30,0.005
628.35,0.007
628.40,0.005
628.45,0.008
628.50,0.005
628.55,0.007
628.60,0.004
628.65,0.006
628.70,0.004
628.75,0.005
628.80,0.003
628.85,0.004
628.90,0.004
628.95,0.005
629.00,0.005
629.05,0.004
629.10,0.004
629.15,0.005
629.20,0.006
629.25,0.003
629.30,0.005
629.35,0.003
629.40,0.006
629.45,0.003
629.50,0.005
629.55,0.004
629.60,0.003
629.65,0.004
629.70,0.004
629.75,0.006
629.80,0.003
629.85,0.006
629.90,0.002
629.95,0.006
630.00,0.003
630.05,0.006
630.10,0.003
630.15,0.005
630.20,0.003
630.25,0.005
630.30,0.005
630.35,0.005
630.40,0.007
630.45,0.005
630.50,0.005
630.55,0.002
630.60,0.005
630.65,0.003
630.70,0.004
630.75,0.004
630.80,0.004
630.85,0.005
630.90,0.003
630.95,0.005
631.00,0.005
631.05,0.004
631.10,0.003
631.15,0.004
631.20,0.004
631.25,0.002
631.30,0.006
631.35,0.003
631.40,0.006
631.45,0.004
631.50,0.005
631.55,0.003
631.60,0.004
631.65,0.003
631.70,0.005
631.75,0.007
631.80,0.004
631.85,0.004
631.90,0.004
631.95,0.005
632.00,0.003
632.05,0.007
632.10,0.004
632.15,0.005
632.20,0.006
632.25,0.007
632.30,0.006
632.35,0.004
632.40,0.007
632.45,0.005
632.50,0.004
632.55,0.008
632.60,0.004
632.65,0.008
632.70,0.000
632.75,0.006
632.80,0.003
632.85,0.007
632.90,0.003
632.95,0.005
633.00,0.006
633.05,0.005
633.10,0.006
633.15,0.004
633.20,0.008
633.25,0.005
633.30,0.007
633.35,0.004
633.40,0.007
633.45,0.004
633.50,0.009
633.55,0.005
633.60,0.005
633.65,0.005
633.70,0.007
633.75,0.005
633.80,0.006
633.85,0.007
633.90,0.004
633.95,0.007
634.00,0.004
634.05,0.006
634.10,0.002
634.15,0.006
634.20,0.005
634.25,0.005
634.30,0.004
634.35,0.004
634.40,0.005
634.45,0.005
634.50,0.007
634.55,0.003
634.60,0.006
634.65,0.003
634.70,0.005
634.75,0.005
634.80,0.006
634.85,0.007
634.90,0.005
634.95,0.007
635.00,0.004
635.05,0.006
635.10,0.004
635.15,0.005
635.20,0.004
635.25,0.006
635.30,0.006
635.35,0.000
635.40,0.009
635.45,0.004
635.50,0.009
635.55,0.001
635.60,0.004
635.65,0.004
635.70,0.006
635.75,0.006
635.80,0.004
635.85,0.008
635.90,0.002
635.95,0.007
636.00,0.004
636.05,0.008
636.10,0.004
636.15,0.006
636.20,0.004
636.25,0.006
636.30,0.004
636.35,0.005
636.40,0.008
636.45,0.005
636.50,0.009
636.55,0.004
636.60,0.008
636.65,0.004
636.70,0.008
636.75,0.003
636.80,0.007
636.85,0.004
636.90,0.006
636.95,0.004
637.00,0.004
637.05,0.007
637.10,0.005
637.15,0.008
637.20,0.004
637.25,0.007
637.30,0.005
637.35,0.006
637.40,0.004
637.45,0.006
637.50,0.006
637.55,0.006
637.60,0.006
637.65,0.005
637.70,0.007
637.75,0.004
637.80,0.008
637.85,0.004
637.90,0.004
637.95,0.006
638.00,0.004
638.05,0.005
638.10,0.004
638.15,0.006
638.20,0.004
638.25,0.006
638.30,0.003
638.35,0.005
638.40,0.004
638.45,0.003
638.50,0.006
638.55,0.007
638.60,0.008
638.65,0.003
638.70,0.005
638.75,0.005
638.80,0.004
638.85,0.007
638.90,0.003
638.95,0.007
639.00,0.004
639.05,0.006
639.10,0.006
639.15,0.005
639.20,0.006
639.25,0.002
639.30,0.007
639.35,0.001
639.40,0.007
639.45,0.002
639.50,0.007
639.55,0.003
639.60,0.006
639.65,0.005
639.70,0.003
639.75,0.005
639.80,0.002
639.85,0.006
639.90,0.001
639.95,0.006
640.00,0.005
640.05,0.007
640.10,0.004
640.15,0.006
640.20,0.006
640.25,0.004
640.30,0.004
640.35,0.004
640.40,0.007
640.45,0.002
640.50,0.007
640.55,0.003
640.60,0.006
640.65,0.005
640.70,0.007
640.75,0.006
640.80,0.003
640.85,0.006
640.90,0.004
640.95,0.005
641.00,0.004
641.05,0.004
641.10,0.007
641.15,0.006
641.20,0.006
641.25,0.006
641.30,0.006
641.35,0.007
641.40,0.004
641.45,0.005
641.50,0.004
641.55,0.007
641.60,0.004
641.65,0.006
641.70,0.007
641.75,0.003
641.80,0.007
641.85,0.003
641.90,0.003
641.95,0.004
642.00,0.004
642.05,0.004
642.10,0.003
642.15,0.004
642.20,0.005
642.25,0.006
642.30,0.004
642.35,0.007
642.40,0.006
642.45,0.002
642.50,0.005
642.55,0.004
642.60,0.006
642.65,0.003
642.70,0.006
642.75,0.003
642.80,0.003
642.85,0.004
642.90,0.005
642.95,0.004
643.00,0.002
643.05,0.008
643.10,0.003
643.15,0.007
643.20,0.003
643.25,0.004
643.30,0.006
643.35,0.002
643.40,0.006
643.45,0.003
643.50,0.006
643.55,0.003
643.60,0.004
643.65,0.003
643.70,0.004
643.75,0.006
643.80,0.002
643.85,0.004
643.90,0.003
643.95,0.004
644.00,0.005
644.05,0.004
644.10,0.005
644.15,0.005
644.20,0.005
644.25,0.004
644.30,0.004
644.35,0.001
644.40,0.003
644.45,0.003
644.50,0.003
644.55,0.004
644.60,0.004
644.65,0.004
644.70,0.004
644.75,0.005
644.80,0.003
644.85,0.006
644.90,0.004
644.95,0.005
645.00,0.006
645.05,0.002
645.10,0.005
645.15,0.003
645.20,0.005
645.25,0.004
645.30,0.006
645.35,0.004
645.40,0.005
645.45,0.005
645.50,0.003
645.55,0.007
645.60,0.004
645.65,0.004
645.70,0.006
645.75,0.005
645.80,0.005
645.85,0.004
645.90,0.005
645.95,0.004
646.00,0.005
646.05,0.005
646.10,0.006
646.15,0.005
646.20,0.004
646.25,0.008
646.30,0.004
646.35,0.004
646.40,0.002
646.45,0.004
646.50,0.004
646.55,0.004
646.60,0.006
646.65,0.001
646.70,0.004
646.75,0.004
646.80,0.004
646.85,0.004
646.90,0.005
646.95,0.003
647.00,0.004
647.05,0.003
647.10,0.006
647.15,0.003
647.20,0.003
647.25,0.003
647.30,0.007
647.35,0.003
647.40,0.003
647.45,0.004
647.50,0.004
647.55,0.004
647.60,0.001
647.65,0.003
647.70,0.006
647.75,0.003
647.80,0.003
647.85,0.003
647.90,0.006
647.95,0.003
648.00,0.002
648.05,0.004
648.10,0.004
648.15,0.003
648.20,0.004
648.25,0.005
648.30,0.003
648.35,0.003
648.40,0.004
648.45,0.007
648.50,0.003
648.55,0.003
648.60,0.006
648.65,0.005
648.70,0.006
648.75,0.003
648.80,0.005
648.85,0.003
648.90,0.005
648.95,0.003
649.00,0.003
649.05,0.004
649.10,0.003
649.15,0.006
649.20,0.002
649.25,0.007
649.30,0.004
649.35,0.007
649.40,0.006
649.45,0.003
649.50,0.005
649.55,0.003
649.60,0.007
649.65,0.004
649.70,0.004
649.75,0.007
649.80,0.004
649.85,0.006
649.90,0.004
649.95,0.007
650.00,0.004
